File: DSC_Data/pet.txt
         Index             t Heat Flow ...            Ts            Tr
           [#]           [s]       [Wg^-1]          [°C]          [°C]
             0   0.00000e+00  -8.21543e-03   2.49989e+01   2.50000e+01
            15   1.50000e+01  -1.86798e-01   2.74738e+01   2.75000e+01
            30   3.00000e+01  -2.32490e-01   2.99669e+01   3.00000e+01
            45   4.50000e+01  -2.37005e-01   3.24659e+01   3.25000e+01
            60   6.00000e+01  -2.38088e-01   3.49652e+01   3.50000e+01
            75   7.50000e+01  -2.39258e-01   3.74646e+01   3.75000e+01
            90   9.00000e+01  -2.40473e-01   3.99640e+01   4.00000e+01
           105   1.05000e+02  -2.41987e-01   4.24633e+01   4.25000e+01
           120   1.20000e+02  -2.43711e-01   4.49626e+01   4.50000e+01
           135   1.35000e+02  -2.45611e-01   4.74618e+01   4.75000e+01
           150   1.50000e+02  -2.47608e-01   4.99610e+01   5.00000e+01
           165   1.65000e+02  -2.50099e-01   5.24601e+01   5.25000e+01
           180   1.80000e+02  -2.52622e-01   5.49592e+01   5.50000e+01
           195   1.95000e+02  -2.55022e-01   5.74584e+01   5.75000e+01
           210   2.10000e+02  -2.58594e-01   5.99573e+01   6.00000e+01
           225   2.25000e+02  -2.62034e-01   6.24562e+01   6.25000e+01
           240   2.40000e+02  -2.66629e-01   6.49549e+01   6.50000e+01
           255   2.55000e+02  -2.71381e-01   6.74536e+01   6.75000e+01
           270   2.70000e+02  -2.73671e-01   6.99526e+01   7.00000e+01
           285   2.85000e+02  -2.72883e-01   7.24522e+01   7.25000e+01
           300   3.00000e+02  -2.72554e-01   7.49518e+01   7.50000e+01
           315   3.15000e+02  -2.73311e-01   7.74511e+01   7.75000e+01
           330   3.30000e+02  -2.74260e-01   7.99504e+01   8.00000e+01
           345   3.45000e+02  -2.75127e-01   8.24497e+01   8.25000e+01
           360   3.60000e+02  -2.74957e-01   8.49492e+01   8.50000e+01
           375   3.75000e+02  -2.74528e-01   8.74487e+01   8.75000e+01
           390   3.90000e+02  -2.74039e-01   8.99483e+01   9.00000e+01
           405   4.05000e+02  -2.73392e-01   9.24478e+01   9.25000e+01
           420   4.20000e+02  -2.72542e-01   9.49475e+01   9.50000e+01
           435   4.35000e+02  -2.72858e-01   9.74469e+01   9.75000e+01
           450   4.50000e+02  -2.73745e-01   9.99462e+01   1.00000e+02
           465   4.65000e+02  -2.75362e-01   1.02445e+02   1.02500e+02
           480   4.80000e+02  -2.77273e-01   1.04944e+02   1.05000e+02
           495   4.95000e+02  -2.79279e-01   1.07443e+02   1.07500e+02
           510   5.10000e+02  -2.81116e-01   1.09943e+02   1.10000e+02
           525   5.25000e+02  -2.83025e-01   1.12442e+02   1.12500e+02
           540   5.40000e+02  -2.84587e-01   1.14941e+02   1.15000e+02
           555   5.55000e+02  -2.86057e-01   1.17440e+02   1.17500e+02
           570   5.70000e+02  -2.87186e-01   1.19939e+02   1.20000e+02
           585   5.85000e+02  -2.88191e-01   1.22438e+02   1.22500e+02
           600   6.00000e+02  -2.88874e-01   1.24938e+02   1.25000e+02
           615   6.15000e+02  -2.89706e-01   1.27437e+02   1.27500e+02
           630   6.30000e+02  -2.90622e-01   1.29936e+02   1.30000e+02
           645   6.45000e+02  -2.91270e-01   1.32436e+02   1.32500e+02
           660   6.60000e+02  -2.92364e-01   1.34935e+02   1.35000e+02
           675   6.75000e+02  -2.93463e-01   1.37434e+02   1.37500e+02
           690   6.90000e+02  -2.94582e-01   1.39933e+02   1.40000e+02
           705   7.05000e+02  -2.96043e-01   1.42432e+02   1.42500e+02
           720   7.20000e+02  -2.97468e-01   1.44932e+02   1.45000e+02
           735   7.35000e+02  -2.99084e-01   1.47431e+02   1.47500e+02
           750   7.50000e+02  -3.00871e-01   1.49930e+02   1.50000e+02
           765   7.65000e+02  -3.02692e-01   1.52429e+02   1.52500e+02
           780   7.80000e+02  -3.04460e-01   1.54928e+02   1.55000e+02
           795   7.95000e+02  -3.06621e-01   1.57427e+02   1.57500e+02
           810   8.10000e+02  -3.08626e-01   1.59926e+02   1.60000e+02
           825   8.25000e+02  -3.10559e-01   1.62425e+02   1.62500e+02
           840   8.40000e+02  -3.12602e-01   1.64924e+02   1.65000e+02
           855   8.55000e+02  -3.14755e-01   1.67423e+02   1.67500e+02
           870   8.70000e+02  -3.16575e-01   1.69922e+02   1.70000e+02
           885   8.85000e+02  -3.18527e-01   1.72421e+02   1.72500e+02
           900   9.00000e+02  -3.20445e-01   1.74920e+02   1.75000e+02
           915   9.15000e+02  -3.22402e-01   1.77419e+02   1.77500e+02
           930   9.30000e+02  -3.24523e-01   1.79917e+02   1.80000e+02
           945   9.45000e+02  -3.26591e-01   1.82416e+02   1.82500e+02
           960   9.60000e+02  -3.28477e-01   1.84915e+02   1.85000e+02
           975   9.75000e+02  -3.30872e-01   1.87414e+02   1.87500e+02
           990   9.90000e+02  -3.33453e-01   1.89913e+02   1.90000e+02
          1005   1.00500e+03  -3.35655e-01   1.92412e+02   1.92500e+02
          1020   1.02000e+03  -3.38475e-01   1.94911e+02   1.95000e+02
          1035   1.03500e+03  -3.41087e-01   1.97409e+02   1.97500e+02
          1050   1.05000e+03  -3.43821e-01   1.99908e+02   2.00000e+02
          1065   1.06500e+03  -3.46983e-01   2.02407e+02   2.02500e+02
          1080   1.08000e+03  -3.49965e-01   2.04905e+02   2.05000e+02
          1095   1.09500e+03  -3.53737e-01   2.07404e+02   2.07500e+02
          1110   1.11000e+03  -3.57860e-01   2.09902e+02   2.10000e+02
          1125   1.12500e+03  -3.61959e-01   2.12400e+02   2.12500e+02
          1140   1.14000e+03  -3.66569e-01   2.14898e+02   2.15000e+02
          1155   1.15500e+03  -3.72009e-01   2.17396e+02   2.17500e+02
          1170   1.17000e+03  -3.77312e-01   2.19894e+02   2.20000e+02
          1185   1.18500e+03  -3.74794e-01   2.22394e+02   2.22500e+02
          1200   1.20000e+03  -3.93893e-01   2.24888e+02   2.25000e+02
          1215   1.21500e+03  -4.07736e-01   2.27384e+02   2.27500e+02
          1230   1.23000e+03  -4.25216e-01   2.29878e+02   2.30000e+02
          1245   1.24500e+03  -4.50849e-01   2.32370e+02   2.32500e+02
          1260   1.26000e+03  -4.87719e-01   2.34859e+02   2.35000e+02
          1275   1.27500e+03  -5.36442e-01   2.37344e+02   2.37500e+02
          1290   1.29000e+03  -6.00521e-01   2.39824e+02   2.40000e+02
          1305   1.30500e+03  -6.81053e-01   2.42300e+02   2.42500e+02
          1320   1.32000e+03  -9.41104e-01   2.44722e+02   2.45000e+02
          1335   1.33500e+03  -1.45656e+00   2.47067e+02   2.47500e+02
          1350   1.35000e+03  -4.58517e-01   2.49863e+02   2.50000e+02
          1365   1.36500e+03  -3.08676e-01   2.52407e+02   2.52500e+02
          1380   1.38000e+03  -2.86453e-01   2.54914e+02   2.55000e+02
          1395   1.39500e+03  -2.80002e-01   2.57415e+02   2.57500e+02
          1410   1.41000e+03  -2.77263e-01   2.59916e+02   2.60000e+02
          1425   1.42500e+03  -2.75925e-01   2.62416e+02   2.62500e+02
          1440   1.44000e+03  -2.74561e-01   2.64916e+02   2.65000e+02
          1455   1.45500e+03  -2.72706e-01   2.67416e+02   2.67500e+02
          1470   1.47000e+03  -2.70033e-01   2.69916e+02   2.70000e+02
          1485   1.48500e+03  -2.66034e-01   2.72417e+02   2.72500e+02
          1500   1.50000e+03  -2.62628e-01   2.74918e+02   2.75000e+02
          1515   1.51500e+03  -2.57044e-01   2.77419e+02   2.77500e+02
          1530   1.53000e+03  -2.51352e-01   2.79921e+02   2.80000e+02
          1545   1.54500e+03  -2.44773e-01   2.82422e+02   2.82500e+02
          1560   1.56000e+03  -2.37359e-01   2.84924e+02   2.85000e+02
          1575   1.57500e+03  -2.27814e-01   2.87427e+02   2.87500e+02
          1590   1.59000e+03  -2.14745e-01   2.89931e+02   2.90000e+02
          1605   1.60500e+03  -2.02789e-01   2.92435e+02   2.92500e+02
          1620   1.62000e+03  -1.87282e-01   2.94939e+02   2.95000e+02
          1635   1.63500e+03  -1.70310e-01   2.97445e+02   2.97500e+02
          1650   1.65000e+03  -1.49482e-01   2.99951e+02   3.00000e+02
          1665   1.66500e+03  -1.31584e-01   3.02457e+02   3.02500e+02
          1680   1.68000e+03  -1.12541e-01   3.04963e+02   3.05000e+02
          1695   1.69500e+03  -9.16647e-02   3.07470e+02   3.07500e+02
          1710   1.71000e+03  -7.09960e-02   3.09976e+02   3.10000e+02
          1725   1.72500e+03  -4.85846e-02   3.12484e+02   3.12500e+02
          1740   1.74000e+03  -2.74118e-02   3.14991e+02   3.15000e+02
          1755   1.75500e+03   2.49355e-03   3.17501e+02   3.17500e+02
          1770   1.77000e+03   2.69062e-02   3.20009e+02   3.20000e+02
          1785   1.78500e+03   5.58910e-02   3.22519e+02   3.22500e+02
          1800   1.80000e+03   8.80993e-02   3.25030e+02   3.25000e+02
          1815   1.81500e+03   1.17752e-01   3.27540e+02   3.27500e+02
          1830   1.83000e+03   1.44546e-01   3.30049e+02   3.30000e+02
          1845   1.84500e+03   1.69035e-01   3.32558e+02   3.32500e+02
          1860   1.86000e+03   1.91381e-01   3.35066e+02   3.35000e+02
          1875   1.87500e+03   2.09800e-01   3.37572e+02   3.37500e+02
          1890   1.89000e+03   2.22365e-01   3.40077e+02   3.40000e+02
          1905   1.90500e+03   2.33801e-01   3.42581e+02   3.42500e+02
          1920   1.92000e+03   2.38166e-01   3.45083e+02   3.45000e+02
          1935   1.93500e+03   2.31799e-01   3.47581e+02   3.47500e+02
          1950   1.95000e+03   4.08112e-01   3.50143e+02   3.50000e+02
          1965   1.96500e+03   5.52166e-01   3.50194e+02   3.50000e+02
          1980   1.98000e+03   5.32578e-01   3.50187e+02   3.50000e+02
          1995   1.99500e+03   5.13146e-01   3.50180e+02   3.50000e+02
          2010   2.01000e+03   4.96018e-01   3.50174e+02   3.50000e+02
!&water bottle